*** SPECTRAL RESPONSE DATA ***
AATSR Flight Model FPA #2 12um channel (AuSpace measuremets).
W
 255
0.00932710
11.023855     0.00000
11.033182     0.00005
11.042509     0.00010
11.051836     0.00013
11.061163     0.00015
11.070490     0.00011
11.079818     0.00023
11.089145     0.00044
11.098472     0.00058
11.107799     0.00083
11.117126     0.00117
11.126453     0.00157
11.135780     0.00218
11.145107     0.00306
11.154434     0.00383
11.163761     0.00479
11.173089     0.00604
11.182416     0.00772
11.191743     0.00936
11.201070     0.01167
11.210397     0.01421
11.219724     0.01616
11.229051     0.01929
11.238378     0.02317
11.247705     0.02571
11.257032     0.02977
11.266360     0.03359
11.275687     0.03703
11.285014     0.04212
11.294341     0.04783
11.303668     0.05337
11.312995     0.05817
11.322322     0.06324
11.331649     0.07084
11.340976     0.07690
11.350303     0.08341
11.359631     0.09132
11.368958     0.09981
11.378285     0.10808
11.387612     0.11901
11.396939     0.12728
11.406266     0.14115
11.415593     0.15177
11.424920     0.16208
11.434247     0.17395
11.443574     0.19186
11.452902     0.20483
11.462229     0.21745
11.471556     0.24027
11.480883     0.25940
11.490210     0.27394
11.499537     0.29087
11.508864     0.31268
11.518191     0.34010
11.527518     0.36351
11.536845     0.38524
11.546173     0.39727
11.555500     0.43552
11.564827     0.47296
11.574154     0.49639
11.583481     0.52745
11.592808     0.55012
11.602135     0.57532
11.611462     0.60537
11.620789     0.64470
11.630116     0.66433
11.639444     0.69644
11.648771     0.70706
11.658098     0.75627
11.667425     0.84552
11.676752     0.84775
11.686079     0.80343
11.695406     0.85302
11.704733     0.87390
11.714060     0.85701
11.723387     0.90228
11.732715     0.90525
11.742042     0.90884
11.751369     0.92916
11.760696     0.95661
11.770023     0.94340
11.779350     0.99863
11.788677     0.98577
11.798004     0.93741
11.807331     0.93180
11.816658     0.93541
11.825986     0.95493
11.835313     0.94366
11.844640     0.89969
11.853967     0.93047
11.863294     0.94853
11.872621     0.94952
11.881948     0.90322
11.891275     0.89247
11.900602     0.92398
11.909929     0.91428
11.919257     0.89727
11.928584     0.90053
11.937911     0.91938
11.947238     0.90899
11.956565     0.90738
11.965892     0.89388
11.975219     0.91193
11.984546     0.87766
11.993873     0.90069
12.003200     0.87824
12.012528     0.89732
12.021855     0.89851
12.031182     0.90728
12.040509     0.90034
12.049836     0.89415
12.059163     0.88452
12.068490     0.83927
12.077817     0.92570
12.087144     0.89569
12.096471     0.86865
12.105799     0.88067
12.115126     0.91540
12.124453     0.91474
12.133780     0.93118
12.143107     0.89670
12.152434     0.93849
12.161761     0.89968
12.171088     0.87399
12.180415     0.95690
12.189742     0.99941
12.199070     0.96435
12.208397     0.86423
12.217724     1.00000
12.227051     0.91557
12.236378     0.94900
12.245705     0.93172
12.255032     0.95291
12.264359     0.95388
12.273686     0.99468
12.283013     0.88151
12.292341     0.98603
12.301668     0.86244
12.310995     0.89999
12.320322     0.91813
12.329649     0.90372
12.338976     0.87760
12.348303     0.86870
12.357630     0.86445
12.366957     0.82220
12.376284     0.83785
12.385612     0.80269
12.394939     0.77462
12.404266     0.71862
12.413593     0.74697
12.422920     0.71044
12.432247     0.67130
12.441574     0.66259
12.450901     0.60768
12.460228     0.57584
12.469555     0.56037
12.478883     0.54150
12.488210     0.47689
12.497537     0.50569
12.506864     0.47015
12.516191     0.42380
12.525518     0.42528
12.534845     0.41850
12.544172     0.37703
12.553499     0.36005
12.562826     0.33102
12.572154     0.30819
12.581481     0.29893
12.590808     0.29149
12.600135     0.24750
12.609462     0.26266
12.618789     0.23964
12.628116     0.22905
12.637443     0.22298
12.646770     0.19598
12.656097     0.18589
12.665425     0.17299
12.674752     0.16377
12.684079     0.15945
12.693406     0.15247
12.702733     0.14793
12.712060     0.13586
12.721387     0.13236
12.730714     0.11615
12.740041     0.10819
12.749368     0.10673
12.758696     0.09624
12.768023     0.09048
12.777350     0.08737
12.786677     0.08318
12.796004     0.07976
12.805331     0.07120
12.814658     0.06416
12.823985     0.06313
12.833312     0.06368
12.842639     0.05518
12.851967     0.05150
12.861294     0.04984
12.870621     0.04434
12.879948     0.04511
12.889275     0.04292
12.898602     0.03744
12.907929     0.03677
12.917256     0.03506
12.926583     0.03157
12.935910     0.03167
12.945238     0.02877
12.954565     0.02596
12.963892     0.02618
12.973219     0.02283
12.982546     0.02232
12.991873     0.02276
13.001200     0.02058
13.010527     0.01894
13.019854     0.01776
13.029181     0.01723
13.038509     0.01651
13.047836     0.01634
13.057163     0.01596
13.066490     0.01457
13.075817     0.01461
13.085144     0.01461
13.094471     0.01323
13.103798     0.01157
13.113125     0.01198
13.122452     0.01199
13.131780     0.01051
13.141107     0.00996
13.150434     0.01056
13.159761     0.01079
13.169088     0.00891
13.178415     0.00925
13.187742     0.00921
13.197069     0.00891
13.206396     0.00815
13.215723     0.00771
13.225051     0.00674
13.234378     0.00663
13.243705     0.00688
13.253032     0.00589
13.262359     0.00686
13.271686     0.00619
13.281013     0.00561
13.290340     0.00582
13.299667     0.00543
13.308994     0.00531
13.318322     0.00562
13.327649     0.00538
13.336976     0.00483
13.346303     0.00510
13.355630     0.00489
13.364957     0.00490
13.374284     0.00456
13.383611     0.00402
13.392938     0.00451
