*** SPECTRAL RESPONSE DATA ***
AATSR Flight Model FPA #2 0.87um channel (AuSpace measuremets).
W
 255
0.00025935
 0.834274     0.00092
 0.834533     0.00097
 0.834792     0.00101
 0.835052     0.00103
 0.835311     0.00111
 0.835570     0.00125
 0.835830     0.00134
 0.836089     0.00149
 0.836348     0.00153
 0.836608     0.00164
 0.836867     0.00166
 0.837126     0.00182
 0.837386     0.00205
 0.837645     0.00208
 0.837905     0.00219
 0.838164     0.00235
 0.838423     0.00244
 0.838683     0.00279
 0.838942     0.00300
 0.839201     0.00319
 0.839461     0.00335
 0.839720     0.00350
 0.839979     0.00380
 0.840239     0.00423
 0.840498     0.00458
 0.840757     0.00488
 0.841017     0.00527
 0.841276     0.00563
 0.841535     0.00611
 0.841795     0.00661
 0.842054     0.00729
 0.842313     0.00780
 0.842573     0.00844
 0.842832     0.00907
 0.843092     0.00998
 0.843351     0.01105
 0.843610     0.01198
 0.843870     0.01310
 0.844129     0.01425
 0.844388     0.01577
 0.844648     0.01721
 0.844907     0.01888
 0.845166     0.02089
 0.845426     0.02324
 0.845685     0.02585
 0.845944     0.02856
 0.846204     0.03184
 0.846463     0.03579
 0.846722     0.03994
 0.846982     0.04485
 0.847241     0.05043
 0.847500     0.05726
 0.847760     0.06518
 0.848019     0.07410
 0.848279     0.08408
 0.848538     0.09591
 0.848797     0.10951
 0.849057     0.12488
 0.849316     0.14182
 0.849575     0.16092
 0.849835     0.18299
 0.850094     0.20971
 0.850353     0.23809
 0.850613     0.27049
 0.850872     0.30613
 0.851131     0.34426
 0.851391     0.38585
 0.851650     0.43182
 0.851909     0.47719
 0.852169     0.52326
 0.852428     0.57208
 0.852687     0.61951
 0.852947     0.66247
 0.853206     0.70792
 0.853466     0.75085
 0.853725     0.79029
 0.853984     0.83135
 0.854244     0.86875
 0.854503     0.89242
 0.854762     0.92018
 0.855022     0.94016
 0.855281     0.94893
 0.855540     0.95445
 0.855800     0.95825
 0.856059     0.95716
 0.856318     0.95313
 0.856578     0.94532
 0.856837     0.93834
 0.857096     0.92823
 0.857356     0.92095
 0.857615     0.91082
 0.857874     0.89836
 0.858134     0.89337
 0.858393     0.88466
 0.858653     0.87639
 0.858912     0.87264
 0.859171     0.86813
 0.859431     0.86265
 0.859690     0.85794
 0.859949     0.86013
 0.860209     0.86102
 0.860468     0.85899
 0.860727     0.86062
 0.860987     0.86461
 0.861246     0.86792
 0.861505     0.87355
 0.861765     0.87900
 0.862024     0.88338
 0.862283     0.89123
 0.862543     0.89767
 0.862802     0.90770
 0.863061     0.91500
 0.863321     0.92185
 0.863580     0.93279
 0.863840     0.94239
 0.864099     0.95215
 0.864358     0.96235
 0.864618     0.97048
 0.864877     0.98116
 0.865136     0.98873
 0.865396     0.99220
 0.865655     0.99393
 0.865914     0.99749
 0.866174     0.99783
 0.866433     1.00000
 0.866692     0.99420
 0.866952     0.99329
 0.867211     0.98929
 0.867470     0.97812
 0.867730     0.96401
 0.867989     0.95227
 0.868248     0.93624
 0.868508     0.92097
 0.868767     0.90245
 0.869027     0.88199
 0.869286     0.85687
 0.869545     0.82950
 0.869805     0.80426
 0.870064     0.77541
 0.870323     0.74381
 0.870583     0.71035
 0.870842     0.67546
 0.871101     0.64194
 0.871361     0.60493
 0.871620     0.57224
 0.871879     0.53843
 0.872139     0.50456
 0.872398     0.46906
 0.872657     0.43539
 0.872917     0.40388
 0.873176     0.37146
 0.873435     0.34066
 0.873695     0.31402
 0.873954     0.28727
 0.874214     0.26452
 0.874473     0.24412
 0.874732     0.22416
 0.874992     0.20374
 0.875251     0.18577
 0.875510     0.17016
 0.875770     0.15676
 0.876029     0.14393
 0.876288     0.13177
 0.876548     0.11983
 0.876807     0.10903
 0.877066     0.10047
 0.877326     0.09350
 0.877585     0.08614
 0.877844     0.07913
 0.878104     0.07357
 0.878363     0.06854
 0.878622     0.06330
 0.878882     0.05890
 0.879141     0.05524
 0.879401     0.05102
 0.879660     0.04648
 0.879919     0.04336
 0.880179     0.04087
 0.880438     0.03756
 0.880697     0.03453
 0.880957     0.03265
 0.881216     0.03065
 0.881475     0.02795
 0.881735     0.02632
 0.881994     0.02499
 0.882253     0.02310
 0.882513     0.02155
 0.882772     0.02065
 0.883031     0.01914
 0.883291     0.01765
 0.883550     0.01677
 0.883809     0.01586
 0.884069     0.01457
 0.884328     0.01385
 0.884588     0.01318
 0.884847     0.01223
 0.885106     0.01130
 0.885366     0.01074
 0.885625     0.01021
 0.885884     0.00952
 0.886144     0.00897
 0.886403     0.00865
 0.886662     0.00800
 0.886922     0.00728
 0.887181     0.00700
 0.887440     0.00674
 0.887700     0.00629
 0.887959     0.00598
 0.888218     0.00565
 0.888478     0.00525
 0.888737     0.00491
 0.888996     0.00465
 0.889256     0.00431
 0.889515     0.00415
 0.889775     0.00385
 0.890034     0.00363
 0.890293     0.00335
 0.890553     0.00307
 0.890812     0.00292
 0.891071     0.00272
 0.891331     0.00264
 0.891590     0.00241
 0.891849     0.00225
 0.892109     0.00215
 0.892368     0.00199
 0.892627     0.00194
 0.892887     0.00180
 0.893146     0.00163
 0.893405     0.00150
 0.893665     0.00140
 0.893924     0.00135
 0.894183     0.00123
 0.894443     0.00111
 0.894702     0.00106
 0.894962     0.00098
 0.895221     0.00095
 0.895480     0.00087
 0.895740     0.00080
 0.895999     0.00077
 0.896258     0.00075
 0.896518     0.00056
 0.896777     0.00053
 0.897036     0.00038
 0.897296     0.00039
 0.897555     0.00033
 0.897814     0.00031
 0.898074     0.00026
 0.898333     0.00025
 0.898592     0.00023
 0.898852     0.00016
 0.899111     0.00013
 0.899370     0.00017
 0.899630     0.00010
 0.899889     0.00001
 0.900149     0.00000
