*** SPECTRAL RESPONSE DATA ***
AATSR Flight Model FPA #2 0.659um channel (AuSpace measuremets).
W
 255
0.00025968
 0.629289     0.00000
 0.629549     0.00001
 0.629809     0.00003
 0.630068     0.00009
 0.630328     0.00021
 0.630588     0.00034
 0.630847     0.00042
 0.631107     0.00051
 0.631367     0.00067
 0.631626     0.00058
 0.631886     0.00072
 0.632146     0.00089
 0.632405     0.00101
 0.632665     0.00112
 0.632925     0.00116
 0.633185     0.00130
 0.633444     0.00160
 0.633704     0.00179
 0.633964     0.00191
 0.634223     0.00205
 0.634483     0.00223
 0.634743     0.00233
 0.635002     0.00257
 0.635262     0.00270
 0.635522     0.00317
 0.635781     0.00344
 0.636041     0.00368
 0.636301     0.00412
 0.636560     0.00442
 0.636820     0.00468
 0.637080     0.00515
 0.637339     0.00563
 0.637599     0.00596
 0.637859     0.00653
 0.638118     0.00701
 0.638378     0.00750
 0.638638     0.00812
 0.638897     0.00890
 0.639157     0.00980
 0.639417     0.01066
 0.639677     0.01168
 0.639936     0.01272
 0.640196     0.01400
 0.640456     0.01547
 0.640715     0.01687
 0.640975     0.01862
 0.641235     0.02077
 0.641494     0.02293
 0.641754     0.02518
 0.642014     0.02793
 0.642273     0.03134
 0.642533     0.03470
 0.642793     0.03864
 0.643052     0.04313
 0.643312     0.04835
 0.643572     0.05393
 0.643831     0.06026
 0.644091     0.06707
 0.644351     0.07489
 0.644610     0.08395
 0.644870     0.09315
 0.645130     0.10392
 0.645389     0.11581
 0.645649     0.12813
 0.645909     0.14275
 0.646169     0.15755
 0.646428     0.17432
 0.646688     0.19208
 0.646948     0.21188
 0.647207     0.23045
 0.647467     0.25370
 0.647727     0.27831
 0.647986     0.30596
 0.648246     0.32921
 0.648506     0.35895
 0.648765     0.38716
 0.649025     0.41832
 0.649285     0.44847
 0.649544     0.48226
 0.649804     0.51087
 0.650064     0.53991
 0.650323     0.56766
 0.650583     0.59197
 0.650843     0.61512
 0.651102     0.63926
 0.651362     0.66095
 0.651622     0.68246
 0.651881     0.70140
 0.652141     0.71982
 0.652401     0.74128
 0.652661     0.75814
 0.652920     0.77615
 0.653180     0.79392
 0.653440     0.80825
 0.653699     0.82689
 0.653959     0.84214
 0.654219     0.85312
 0.654478     0.87056
 0.654738     0.88013
 0.654998     0.89568
 0.655257     0.90863
 0.655517     0.91931
 0.655777     0.92943
 0.656036     0.94287
 0.656296     0.95232
 0.656556     0.96241
 0.656815     0.97159
 0.657075     0.97711
 0.657335     0.98220
 0.657594     0.98560
 0.657854     0.99326
 0.658114     0.99349
 0.658373     0.99731
 0.658633     0.99961
 0.658893     0.99981
 0.659153     1.00000
 0.659412     0.99628
 0.659672     0.99543
 0.659932     0.99232
 0.660191     0.99422
 0.660451     0.98959
 0.660711     0.98451
 0.660970     0.97942
 0.661230     0.97636
 0.661490     0.97270
 0.661749     0.96509
 0.662009     0.96218
 0.662269     0.95949
 0.662528     0.95265
 0.662788     0.94508
 0.663048     0.93997
 0.663307     0.93108
 0.663567     0.92955
 0.663827     0.92275
 0.664086     0.91927
 0.664346     0.91174
 0.664606     0.90703
 0.664865     0.89933
 0.665125     0.89028
 0.665385     0.88368
 0.665645     0.87385
 0.665904     0.86464
 0.666164     0.85302
 0.666424     0.83907
 0.666683     0.82434
 0.666943     0.80813
 0.667203     0.78836
 0.667462     0.76657
 0.667722     0.74592
 0.667982     0.71919
 0.668241     0.68978
 0.668501     0.66060
 0.668761     0.62891
 0.669020     0.59768
 0.669280     0.56704
 0.669540     0.53294
 0.669799     0.50115
 0.670059     0.46868
 0.670319     0.43685
 0.670578     0.40628
 0.670838     0.37381
 0.671098     0.34596
 0.671357     0.31746
 0.671617     0.29087
 0.671877     0.26639
 0.672137     0.24380
 0.672396     0.22156
 0.672656     0.20271
 0.672916     0.18387
 0.673175     0.16866
 0.673435     0.15268
 0.673695     0.13997
 0.673954     0.12734
 0.674214     0.11622
 0.674474     0.10560
 0.674733     0.09684
 0.674993     0.08884
 0.675253     0.08162
 0.675512     0.07536
 0.675772     0.06941
 0.676032     0.06453
 0.676291     0.05964
 0.676551     0.05519
 0.676811     0.05105
 0.677070     0.04749
 0.677330     0.04407
 0.677590     0.04082
 0.677849     0.03812
 0.678109     0.03537
 0.678369     0.03297
 0.678629     0.03084
 0.678888     0.02910
 0.679148     0.02732
 0.679408     0.02570
 0.679667     0.02426
 0.679927     0.02295
 0.680187     0.02156
 0.680446     0.02024
 0.680706     0.01914
 0.680966     0.01806
 0.681225     0.01695
 0.681485     0.01589
 0.681745     0.01520
 0.682004     0.01437
 0.682264     0.01351
 0.682524     0.01276
 0.682783     0.01213
 0.683043     0.01148
 0.683303     0.01091
 0.683562     0.01034
 0.683822     0.00995
 0.684082     0.00941
 0.684341     0.00884
 0.684601     0.00841
 0.684861     0.00798
 0.685121     0.00750
 0.685380     0.00709
 0.685640     0.00685
 0.685900     0.00653
 0.686159     0.00616
 0.686419     0.00571
 0.686679     0.00562
 0.686938     0.00528
 0.687198     0.00489
 0.687458     0.00473
 0.687717     0.00454
 0.687977     0.00427
 0.688237     0.00407
 0.688496     0.00391
 0.688756     0.00355
 0.689016     0.00341
 0.689275     0.00326
 0.689535     0.00312
 0.689795     0.00274
 0.690054     0.00259
 0.690314     0.00240
 0.690574     0.00232
 0.690833     0.00224
 0.691093     0.00213
 0.691353     0.00203
 0.691613     0.00187
 0.691872     0.00169
 0.692132     0.00161
 0.692392     0.00149
 0.692651     0.00134
 0.692911     0.00127
 0.693171     0.00115
 0.693430     0.00102
 0.693690     0.00093
 0.693950     0.00082
 0.694209     0.00085
 0.694469     0.00082
 0.694729     0.00062
 0.694988     0.00060
 0.695248     0.00057
